[Measurement conditions]
Sample identification,LA05_0R0_0R2a
Comment,
Anode material,Cu
K-Alpha1 wavelength,1.5405980
K-Alpha2 wavelength,1.5444260
Ratio K-Alpha2/K-Alpha1,0.500
Divergence slit,Fixed,0.38mm
Monochromator used,NO
Generator voltage, 45
Tube current, 40
File date and time,03-Apr-2019 14:21
Unit cell,
h k l, 0 0 0
Scan axis,Gonio
Scan range,3.010000000,74.990000000
Scan step size,0.0200000
No. of points, 3599
Scan type,CONTINUOUS
Time per step,10.160
[Scan points]
Angle,Intensity
3.020000000,536.6
3.040000000,541.5
3.060000000,542.6
3.080000000,492.7
3.100000000,516.1
3.120000000,505.1
3.140000000,533.8
3.160000000,528.5
3.180000000,524.3
3.200000000,526.6
3.220000000,524.6
3.240000000,556.4
3.260000000,519.8
3.280000000,555.4
3.300000000,547.8
3.320000000,552.0
3.340000000,603.6
3.360000000,621.1
3.380000000,576.6
3.400000000,621.4
3.420000000,588.4
3.440000000,601.0
3.460000000,607.2
3.480000000,583.8
3.500000000,653.8
3.520000000,685.3
3.540000000,659.8
3.560000000,642.6
3.580000000,640.8
3.600000000,654.2
3.620000000,623.8
3.640000000,704.0
3.660000000,652.1
3.680000000,648.4
3.700000000,669.9
3.720000000,621.6
3.740000000,636.4
3.760000000,696.3
3.780000000,650.9
3.800000000,698.0
3.820000000,664.2
3.840000000,667.0
3.860000000,671.6
3.880000000,689.2
3.900000000,673.7
3.920000000,672.3
3.940000000,727.0
3.960000000,704.2
3.980000000,675.0
4.000000000,704.0
4.020000000,726.4
4.040000000,704.7
4.060000000,752.0
4.080000000,740.7
4.100000000,740.1
4.120000000,722.6
4.140000000,744.6
4.160000000,743.1
4.180000000,700.1
4.200000000,711.1
4.220000000,715.1
4.240000000,687.0
4.260000000,719.9
4.280000000,731.1
4.300000000,757.6
4.320000000,716.3
4.340000000,723.9
4.360000000,726.4
4.380000000,732.5
4.400000000,708.7
4.420000000,729.0
4.440000000,717.2
4.460000000,734.0
4.480000000,668.9
4.500000000,728.2
4.520000000,728.1
4.540000000,722.4
4.560000000,727.6
4.580000000,727.5
4.600000000,718.7
4.620000000,752.8
4.640000000,748.4
4.660000000,747.3
4.680000000,705.0
4.700000000,733.6
4.720000000,717.1
4.740000000,707.0
4.760000000,737.9
4.780000000,705.4
4.800000000,713.1
4.820000000,697.2
4.840000000,689.7
4.860000000,726.2
4.880000000,721.6
4.900000000,725.5
4.920000000,734.6
4.940000000,713.9
4.960000000,725.5
4.980000000,655.5
5.000000000,703.0
5.020000000,734.0
5.040000000,701.4
5.060000000,732.2
5.080000000,704.3
5.100000000,722.3
5.120000000,671.0
5.140000000,698.4
5.160000000,731.7
5.180000000,700.3
5.200000000,719.3
5.220000000,742.1
5.240000000,688.2
5.260000000,699.2
5.280000000,712.1
5.300000000,689.7
5.320000000,689.5
5.340000000,661.8
5.360000000,710.8
5.380000000,670.6
5.400000000,663.1
5.420000000,692.1
5.440000000,673.4
5.460000000,696.1
5.480000000,682.3
5.500000000,650.8
5.520000000,674.2
5.540000000,666.6
5.560000000,669.8
5.580000000,613.3
5.600000000,658.0
5.620000000,625.2
5.640000000,665.0
5.660000000,612.2
5.680000000,661.4
5.700000000,655.9
5.720000000,697.3
5.740000000,698.5
5.760000000,639.6
5.780000000,654.8
5.800000000,635.5
5.820000000,647.0
5.840000000,688.0
5.860000000,595.1
5.880000000,581.4
5.900000000,672.7
5.920000000,665.3
5.940000000,674.0
5.960000000,605.0
5.980000000,630.7
6.000000000,619.8
6.020000000,637.7
6.040000000,611.7
6.060000000,614.0
6.080000000,646.2
6.100000000,659.0
6.120000000,670.2
6.140000000,661.6
6.160000000,623.6
6.180000000,598.5
6.200000000,621.7
6.220000000,605.3
6.240000000,651.2
6.260000000,585.9
6.280000000,582.1
6.300000000,606.3
6.320000000,662.5
6.340000000,644.2
6.360000000,584.4
6.380000000,580.6
6.400000000,614.4
6.420000000,634.3
6.440000000,594.6
6.460000000,630.3
6.480000000,627.0
6.500000000,638.0
6.520000000,606.5
6.540000000,596.3
6.560000000,584.6
6.580000000,607.8
6.600000000,592.6
6.620000000,611.5
6.640000000,579.2
6.660000000,577.8
6.680000000,612.6
6.700000000,648.1
6.720000000,611.1
6.740000000,551.2
6.760000000,582.0
6.780000000,610.9
6.800000000,613.1
6.820000000,590.1
6.840000000,575.1
6.860000000,612.0
6.880000000,572.1
6.900000000,549.8
6.920000000,586.5
6.940000000,583.6
6.960000000,611.7
6.980000000,615.7
7.000000000,593.7
7.020000000,594.4
7.040000000,557.2
7.060000000,578.4
7.080000000,580.6
7.100000000,639.3
7.120000000,592.6
7.140000000,653.8
7.160000000,607.9
7.180000000,587.5
7.200000000,592.3
7.220000000,588.6
7.240000000,592.8
7.260000000,599.7
7.280000000,583.1
7.300000000,596.7
7.320000000,589.9
7.340000000,589.9
7.360000000,589.7
7.380000000,621.6
7.400000000,599.2
7.420000000,606.6
7.440000000,604.0
7.460000000,609.7
7.480000000,613.0
7.500000000,631.3
7.520000000,621.2
7.540000000,601.9
7.560000000,631.0
7.580000000,624.5
7.600000000,651.5
7.620000000,651.2
7.640000000,659.2
7.660000000,677.1
7.680000000,640.3
7.700000000,678.6
7.720000000,695.2
7.740000000,706.5
7.760000000,694.7
7.780000000,665.6
7.800000000,662.8
7.820000000,703.4
7.840000000,717.5
7.860000000,717.3
7.880000000,704.2
7.900000000,773.2
7.920000000,746.2
7.940000000,759.9
7.960000000,759.9
7.980000000,801.8
8.000000000,829.8
8.020000000,848.7
8.040000000,859.4
8.060000000,859.4
8.080000000,862.0
8.100000000,880.4
8.120000000,919.9
8.140000000,950.5
8.160000000,935.9
8.180000000,968.1
8.200000000,988.3
8.220000000,1055.4
8.240000000,1098.8
8.260000000,1143.3
8.280000000,1116.4
8.300000000,1199.2
8.320000000,1161.4
8.340000000,1278.9
8.360000000,1335.2
8.380000000,1314.5
8.400000000,1371.3
8.420000000,1464.9
8.440000000,1502.8
8.460000000,1557.3
8.480000000,1575.0
8.500000000,1707.6
8.520000000,1766.7
8.540000000,1748.8
8.560000000,1793.4
8.580000000,1885.1
8.600000000,1889.2
8.620000000,2018.1
8.640000000,2048.5
8.660000000,2141.3
8.680000000,2224.6
8.700000000,2296.6
8.720000000,2285.5
8.740000000,2454.2
8.760000000,2442.0
8.780000000,2493.1
8.800000000,2547.1
8.820000000,2684.7
8.840000000,2696.3
8.860000000,2616.2
8.880000000,2629.1
8.900000000,2651.5
8.920000000,2417.4
8.940000000,2375.9
8.960000000,2189.9
8.980000000,2140.1
9.000000000,1976.6
9.020000000,1937.3
9.040000000,1679.1
9.060000000,1607.1
9.080000000,1543.3
9.100000000,1408.9
9.120000000,1211.9
9.140000000,1262.0
9.160000000,1147.0
9.180000000,1071.9
9.200000000,1035.9
9.220000000,959.5
9.240000000,894.9
9.260000000,941.0
9.280000000,787.3
9.300000000,827.0
9.320000000,764.7
9.340000000,717.1
9.360000000,712.7
9.380000000,715.3
9.400000000,659.1
9.420000000,685.3
9.440000000,635.4
9.460000000,613.5
9.480000000,587.6
9.500000000,598.1
9.520000000,601.4
9.540000000,594.2
9.560000000,583.6
9.580000000,545.0
9.600000000,529.4
9.620000000,537.0
9.640000000,506.6
9.660000000,507.7
9.680000000,480.1
9.700000000,499.1
9.720000000,505.7
9.740000000,509.6
9.760000000,522.5
9.780000000,497.1
9.800000000,475.8
9.820000000,456.6
9.840000000,439.7
9.860000000,488.0
9.880000000,468.8
9.900000000,459.2
9.920000000,484.9
9.940000000,446.9
9.960000000,459.4
9.980000000,470.1
10.000000000,490.5
10.020000000,461.8
10.040000000,425.7
10.060000000,478.2
10.080000000,463.7
10.100000000,496.9
10.120000000,491.2
10.140000000,490.3
10.160000000,463.4
10.180000000,434.6
10.200000000,499.2
10.220000000,506.8
10.240000000,481.5
10.260000000,516.4
10.280000000,483.5
10.300000000,470.7
10.320000000,456.1
10.340000000,476.3
10.360000000,431.0
10.380000000,489.3
10.400000000,459.5
10.420000000,469.6
10.440000000,466.0
10.460000000,512.2
10.480000000,477.4
10.500000000,456.1
10.520000000,456.0
10.540000000,450.3
10.560000000,487.0
10.580000000,486.5
10.600000000,505.6
10.620000000,484.6
10.640000000,511.3
10.660000000,511.5
10.680000000,483.4
10.700000000,502.7
10.720000000,506.8
10.740000000,515.6
10.760000000,536.0
10.780000000,519.3
10.800000000,523.0
10.820000000,529.0
10.840000000,506.7
10.860000000,531.7
10.880000000,565.1
10.900000000,501.2
10.920000000,554.0
10.940000000,552.3
10.960000000,555.2
10.980000000,594.0
11.000000000,565.8
11.020000000,561.8
11.040000000,551.2
11.060000000,584.5
11.080000000,582.3
11.100000000,590.3
11.120000000,575.0
11.140000000,597.2
11.160000000,575.3
11.180000000,600.2
11.200000000,585.7
11.220000000,626.5
11.240000000,617.9
11.260000000,603.0
11.280000000,633.8
11.300000000,641.5
11.320000000,630.5
11.340000000,663.4
11.360000000,630.4
11.380000000,676.8
11.400000000,651.3
11.420000000,670.1
11.440000000,705.9
11.460000000,717.1
11.480000000,703.3
11.500000000,702.8
11.520000000,704.7
11.540000000,692.3
11.560000000,778.2
11.580000000,752.1
11.600000000,722.5
11.620000000,769.1
11.640000000,773.4
11.660000000,777.1
11.680000000,839.8
11.700000000,845.4
11.720000000,825.8
11.740000000,847.0
11.760000000,850.9
11.780000000,860.8
11.800000000,843.6
11.820000000,910.8
11.840000000,843.7
11.860000000,922.5
11.880000000,937.7
11.900000000,934.6
11.920000000,981.1
11.940000000,924.4
11.960000000,965.6
11.980000000,1004.8
12.000000000,999.4
12.020000000,1048.1
12.040000000,1001.4
12.060000000,987.3
12.080000000,1039.1
12.100000000,1050.7
12.120000000,1035.0
12.140000000,1030.7
12.160000000,1055.0
12.180000000,1014.8
12.200000000,1092.1
12.220000000,1044.6
12.240000000,1057.7
12.260000000,1087.8
12.280000000,1096.6
12.300000000,1027.6
12.320000000,1095.1
12.340000000,1073.1
12.360000000,1045.4
12.380000000,1085.1
12.400000000,1044.0
12.420000000,1021.9
12.440000000,1022.1
12.460000000,964.2
12.480000000,996.8
12.500000000,970.0
12.520000000,949.5
12.540000000,847.4
12.560000000,850.2
12.580000000,855.6
12.600000000,817.9
12.620000000,795.0
12.640000000,815.2
12.660000000,753.3
12.680000000,740.0
12.700000000,670.2
12.720000000,623.0
12.740000000,636.0
12.760000000,605.4
12.780000000,583.0
12.800000000,547.9
12.820000000,582.5
12.840000000,538.0
12.860000000,551.2
12.880000000,519.6
12.900000000,530.4
12.920000000,526.1
12.940000000,478.0
12.960000000,466.1
12.980000000,459.5
13.000000000,414.8
13.020000000,412.8
13.040000000,383.3
13.060000000,381.4
13.080000000,393.6
13.100000000,383.5
13.120000000,387.7
13.140000000,326.2
13.160000000,365.2
13.180000000,353.5
13.200000000,309.7
13.220000000,333.7
13.240000000,363.1
13.260000000,343.5
13.280000000,353.9
13.300000000,322.8
13.320000000,294.1
13.340000000,295.6
13.360000000,337.1
13.380000000,277.2
13.400000000,283.8
13.420000000,303.7
13.440000000,281.3
13.460000000,291.4
13.480000000,273.1
13.500000000,263.7
13.520000000,264.2
13.540000000,284.6
13.560000000,271.6
13.580000000,261.3
13.600000000,258.4
13.620000000,269.5
13.640000000,255.8
13.660000000,265.6
13.680000000,257.8
13.700000000,248.5
13.720000000,251.9
13.740000000,259.1
13.760000000,269.6
13.780000000,244.1
13.800000000,253.3
13.820000000,257.9
13.840000000,235.0
13.860000000,232.7
13.880000000,239.1
13.900000000,246.0
13.920000000,258.8
13.940000000,250.2
13.960000000,245.2
13.980000000,247.2
14.000000000,233.1
14.020000000,264.9
14.040000000,218.9
14.060000000,227.6
14.080000000,234.1
14.100000000,223.3
14.120000000,248.0
14.140000000,228.4
14.160000000,217.1
14.180000000,209.1
14.200000000,203.2
14.220000000,227.4
14.240000000,200.0
14.260000000,199.0
14.280000000,216.9
14.300000000,222.9
14.320000000,219.6
14.340000000,223.4
14.360000000,197.5
14.380000000,214.3
14.400000000,224.5
14.420000000,216.5
14.440000000,199.9
14.460000000,198.2
14.480000000,215.5
14.500000000,217.1
14.520000000,220.9
14.540000000,191.8
14.560000000,204.0
14.580000000,226.1
14.600000000,227.0
14.620000000,209.8
14.640000000,215.4
14.660000000,222.4
14.680000000,215.9
14.700000000,201.0
14.720000000,215.3
14.740000000,210.1
14.760000000,176.3
14.780000000,207.9
14.800000000,208.6
14.820000000,172.7
14.840000000,208.4
14.860000000,196.4
14.880000000,210.8
14.900000000,213.3
14.920000000,199.6
14.940000000,213.3
14.960000000,189.5
14.980000000,194.8
15.000000000,187.0
15.020000000,218.1
15.040000000,205.3
15.060000000,196.3
15.080000000,199.9
15.100000000,206.8
15.120000000,223.8
15.140000000,192.3
15.160000000,205.3
15.180000000,222.8
15.200000000,211.1
15.220000000,238.6
15.240000000,190.0
15.260000000,201.4
15.280000000,195.8
15.300000000,203.9
15.320000000,222.6
15.340000000,192.8
15.360000000,235.8
15.380000000,231.7
15.400000000,213.6
15.420000000,207.8
15.440000000,192.2
15.460000000,193.5
15.480000000,189.9
15.500000000,212.0
15.520000000,206.7
15.540000000,175.6
15.560000000,204.9
15.580000000,211.1
15.600000000,188.3
15.620000000,211.3
15.640000000,190.7
15.660000000,184.0
15.680000000,228.3
15.700000000,211.3
15.720000000,224.0
15.740000000,183.0
15.760000000,201.1
15.780000000,217.0
15.800000000,191.8
15.820000000,217.6
15.840000000,204.0
15.860000000,192.2
15.880000000,198.8
15.900000000,190.7
15.920000000,213.8
15.940000000,199.8
15.960000000,215.1
15.980000000,166.2
16.000000000,198.1
16.020000000,184.1
16.040000000,205.8
16.060000000,205.5
16.080000000,219.3
16.100000000,198.6
16.120000000,222.3
16.140000000,192.1
16.160000000,216.9
16.180000000,220.7
16.200000000,199.8
16.220000000,205.0
16.240000000,212.1
16.260000000,218.9
16.280000000,224.3
16.300000000,196.6
16.320000000,190.7
16.340000000,166.7
16.360000000,214.3
16.380000000,211.3
16.400000000,223.3
16.420000000,219.0
16.440000000,230.8
16.460000000,220.0
16.480000000,197.8
16.500000000,212.2
16.520000000,228.2
16.540000000,221.0
16.560000000,200.8
16.580000000,227.2
16.600000000,206.7
16.620000000,211.9
16.640000000,229.6
16.660000000,204.5
16.680000000,230.0
16.700000000,242.9
16.720000000,221.5
16.740000000,213.2
16.760000000,222.9
16.780000000,233.6
16.800000000,239.5
16.820000000,224.2
16.840000000,219.2
16.860000000,219.8
16.880000000,231.6
16.900000000,226.8
16.920000000,242.4
16.940000000,239.0
16.960000000,248.9
16.980000000,234.6
17.000000000,260.6
17.020000000,253.9
17.040000000,258.7
17.060000000,280.4
17.080000000,277.9
17.100000000,261.3
17.120000000,244.4
17.140000000,269.5
17.160000000,309.3
17.180000000,265.9
17.200000000,301.7
17.220000000,301.9
17.240000000,336.0
17.260000000,338.5
17.280000000,309.1
17.300000000,331.0
17.320000000,358.0
17.340000000,372.5
17.360000000,407.5
17.380000000,381.7
17.400000000,392.4
17.420000000,403.7
17.440000000,453.0
17.460000000,430.1
17.480000000,456.7
17.500000000,495.6
17.520000000,490.7
17.540000000,529.3
17.560000000,582.7
17.580000000,578.1
17.600000000,622.9
17.620000000,637.4
17.640000000,695.7
17.660000000,707.2
17.680000000,781.0
17.700000000,829.3
17.720000000,838.0
17.740000000,847.2
17.760000000,919.1
17.780000000,930.2
17.800000000,954.2
17.820000000,887.3
17.840000000,928.1
17.860000000,995.3
17.880000000,851.6
17.900000000,814.5
17.920000000,801.3
17.940000000,771.7
17.960000000,718.2
17.980000000,688.3
18.000000000,653.0
18.020000000,584.3
18.040000000,612.3
18.060000000,578.7
18.080000000,533.3
18.100000000,535.2
18.120000000,515.1
18.140000000,458.8
18.160000000,440.1
18.180000000,423.0
18.200000000,415.8
18.220000000,400.8
18.240000000,392.8
18.260000000,323.9
18.280000000,357.9
18.300000000,338.4
18.320000000,295.3
18.340000000,337.6
18.360000000,329.3
18.380000000,309.3
18.400000000,295.6
18.420000000,303.4
18.440000000,268.8
18.460000000,232.8
18.480000000,271.6
18.500000000,260.5
18.520000000,265.2
18.540000000,258.0
18.560000000,260.4
18.580000000,260.0
18.600000000,248.4
18.620000000,213.9
18.640000000,243.0
18.660000000,241.3
18.680000000,215.9
18.700000000,229.3
18.720000000,228.7
18.740000000,249.8
18.760000000,253.8
18.780000000,228.6
18.800000000,224.4
18.820000000,239.2
18.840000000,198.5
18.860000000,204.7
18.880000000,209.1
18.900000000,213.0
18.920000000,222.4
18.940000000,226.4
18.960000000,197.8
18.980000000,181.5
19.000000000,218.5
19.020000000,222.5
19.040000000,222.7
19.060000000,230.0
19.080000000,217.3
19.100000000,209.6
19.120000000,204.3
19.140000000,203.0
19.160000000,204.2
19.180000000,234.4
19.200000000,229.3
19.220000000,198.0
19.240000000,216.3
19.260000000,201.2
19.280000000,211.4
19.300000000,219.3
19.320000000,197.8
19.340000000,238.5
19.360000000,212.3
19.380000000,195.5
19.400000000,206.5
19.420000000,207.5
19.440000000,222.1
19.460000000,193.6
19.480000000,238.8
19.500000000,203.6
19.520000000,238.2
19.540000000,218.0
19.560000000,231.6
19.580000000,237.6
19.600000000,246.8
19.620000000,275.1
19.640000000,285.4
19.660000000,310.9
19.680000000,359.3
19.700000000,375.8
19.720000000,399.1
19.740000000,478.7
19.760000000,504.0
19.780000000,566.1
19.800000000,626.3
19.820000000,639.7
19.840000000,657.4
19.860000000,655.9
19.880000000,709.5
19.900000000,679.4
19.920000000,651.8
19.940000000,640.4
19.960000000,669.0
19.980000000,635.4
20.000000000,637.4
20.020000000,591.1
20.040000000,583.7
20.060000000,524.8
20.080000000,492.4
20.100000000,478.3
20.120000000,444.7
20.140000000,420.4
20.160000000,408.0
20.180000000,431.3
20.200000000,386.4
20.220000000,393.7
20.240000000,367.2
20.260000000,400.7
20.280000000,396.4
20.300000000,369.8
20.320000000,386.3
20.340000000,353.9
20.360000000,361.9
20.380000000,368.3
20.400000000,370.9
20.420000000,391.8
20.440000000,359.4
20.460000000,392.1
20.480000000,382.5
20.500000000,311.5
20.520000000,364.2
20.540000000,384.3
20.560000000,364.8
20.580000000,370.4
20.600000000,316.9
20.620000000,345.6
20.640000000,360.0
20.660000000,307.3
20.680000000,349.4
20.700000000,325.7
20.720000000,351.1
20.740000000,381.8
20.760000000,367.0
20.780000000,366.5
20.800000000,400.2
20.820000000,376.7
20.840000000,436.4
20.860000000,458.4
20.880000000,521.7
20.900000000,530.8
20.920000000,612.2
20.940000000,579.1
20.960000000,525.8
20.980000000,502.9
21.000000000,428.4
21.020000000,392.0
21.040000000,348.0
21.060000000,333.3
21.080000000,330.7
21.100000000,327.0
21.120000000,319.5
21.140000000,310.2
21.160000000,291.3
21.180000000,309.9
21.200000000,301.5
21.220000000,297.8
21.240000000,322.0
21.260000000,332.5
21.280000000,312.1
21.300000000,329.0
21.320000000,354.6
21.340000000,314.8
21.360000000,326.4
21.380000000,327.8
21.400000000,304.4
21.420000000,307.0
21.440000000,323.1
21.460000000,342.6
21.480000000,324.3
21.500000000,300.2
21.520000000,312.6
21.540000000,316.7
21.560000000,319.8
21.580000000,299.8
21.600000000,306.3
21.620000000,306.4
21.640000000,307.4
21.660000000,303.0
21.680000000,280.6
21.700000000,305.2
21.720000000,288.2
21.740000000,290.2
21.760000000,318.7
21.780000000,297.0
21.800000000,299.7
21.820000000,296.7
21.840000000,312.9
21.860000000,307.4
21.880000000,284.6
21.900000000,307.9
21.920000000,286.4
21.940000000,284.0
21.960000000,286.4
21.980000000,276.7
22.000000000,298.1
22.020000000,281.6
22.040000000,278.6
22.060000000,302.8
22.080000000,255.2
22.100000000,291.5
22.120000000,289.2
22.140000000,273.6
22.160000000,288.3
22.180000000,299.0
22.200000000,322.3
22.220000000,288.3
22.240000000,273.9
22.260000000,310.0
22.280000000,264.9
22.300000000,261.6
22.320000000,292.0
22.340000000,298.5
22.360000000,289.0
22.380000000,326.0
22.400000000,305.0
22.420000000,294.4
22.440000000,299.3
22.460000000,316.8
22.480000000,310.2
22.500000000,308.5
22.520000000,293.4
22.540000000,285.0
22.560000000,296.2
22.580000000,302.2
22.600000000,339.5
22.620000000,314.9
22.640000000,355.8
22.660000000,311.0
22.680000000,296.5
22.700000000,323.2
22.720000000,326.1
22.740000000,286.4
22.760000000,324.0
22.780000000,320.9
22.800000000,346.0
22.820000000,371.5
22.840000000,362.4
22.860000000,352.6
22.880000000,336.7
22.900000000,318.8
22.920000000,322.5
22.940000000,395.3
22.960000000,369.6
22.980000000,352.2
23.000000000,388.3
23.020000000,393.0
23.040000000,384.7
23.060000000,370.2
23.080000000,393.9
23.100000000,356.2
23.120000000,414.8
23.140000000,343.7
23.160000000,381.7
23.180000000,360.9
23.200000000,334.1
23.220000000,352.6
23.240000000,366.5
23.260000000,361.7
23.280000000,375.3
23.300000000,404.9
23.320000000,361.2
23.340000000,387.4
23.360000000,371.0
23.380000000,353.6
23.400000000,344.0
23.420000000,370.2
23.440000000,357.7
23.460000000,370.2
23.480000000,401.6
23.500000000,398.6
23.520000000,395.9
23.540000000,396.1
23.560000000,388.2
23.580000000,399.2
23.600000000,375.5
23.620000000,397.2
23.640000000,404.5
23.660000000,415.7
23.680000000,389.9
23.700000000,417.5
23.720000000,443.4
23.740000000,427.1
23.760000000,444.5
23.780000000,434.4
23.800000000,479.4
23.820000000,509.9
23.840000000,475.4
23.860000000,464.6
23.880000000,462.8
23.900000000,492.5
23.920000000,485.2
23.940000000,476.7
23.960000000,528.4
23.980000000,503.0
24.000000000,498.0
24.020000000,518.2
24.040000000,524.9
24.060000000,517.7
24.080000000,524.7
24.100000000,542.9
24.120000000,543.8
24.140000000,545.4
24.160000000,582.3
24.180000000,573.7
24.200000000,534.7
24.220000000,607.6
24.240000000,586.6
24.260000000,573.9
24.280000000,601.7
24.300000000,629.3
24.320000000,623.1
24.340000000,677.9
24.360000000,644.7
24.380000000,673.0
24.400000000,632.5
24.420000000,728.4
24.440000000,664.8
24.460000000,689.4
24.480000000,693.5
24.500000000,739.6
24.520000000,690.2
24.540000000,740.4
24.560000000,768.5
24.580000000,782.2
24.600000000,754.5
24.620000000,755.6
24.640000000,748.4
24.660000000,791.1
24.680000000,775.8
24.700000000,817.8
24.720000000,778.8
24.740000000,821.0
24.760000000,823.7
24.780000000,812.1
24.800000000,839.1
24.820000000,801.3
24.840000000,827.7
24.860000000,798.4
24.880000000,818.9
24.900000000,852.5
24.920000000,815.6
24.940000000,828.6
24.960000000,840.3
24.980000000,876.7
25.000000000,850.6
25.020000000,772.7
25.040000000,799.1
25.060000000,796.6
25.080000000,771.4
25.100000000,806.6
25.120000000,768.8
25.140000000,727.4
25.160000000,755.1
25.180000000,750.9
25.200000000,775.5
25.220000000,761.9
25.240000000,746.3
25.260000000,743.0
25.280000000,774.9
25.300000000,784.7
25.320000000,835.8
25.340000000,795.7
25.360000000,912.4
25.380000000,844.3
25.400000000,818.6
25.420000000,792.3
25.440000000,737.6
25.460000000,692.7
25.480000000,708.7
25.500000000,638.1
25.520000000,638.7
25.540000000,606.5
25.560000000,582.4
25.580000000,590.9
25.600000000,545.1
25.620000000,585.3
25.640000000,592.1
25.660000000,544.8
25.680000000,574.0
25.700000000,539.7
25.720000000,550.1
25.740000000,516.8
25.760000000,527.4
25.780000000,546.4
25.800000000,487.0
25.820000000,534.9
25.840000000,479.5
25.860000000,519.6
25.880000000,509.8
25.900000000,515.3
25.920000000,520.8
25.940000000,512.1
25.960000000,507.5
25.980000000,526.6
26.000000000,548.9
26.020000000,544.2
26.040000000,529.8
26.060000000,539.5
26.080000000,503.0
26.100000000,571.9
26.120000000,574.6
26.140000000,558.6
26.160000000,553.5
26.180000000,557.4
26.200000000,585.7
26.220000000,607.3
26.240000000,606.7
26.260000000,629.0
26.280000000,663.5
26.300000000,730.6
26.320000000,688.3
26.340000000,734.9
26.360000000,774.0
26.380000000,828.0
26.400000000,851.1
26.420000000,898.9
26.440000000,959.6
26.460000000,1008.1
26.480000000,1037.4
26.500000000,1187.7
26.520000000,1229.0
26.540000000,1312.9
26.560000000,1497.0
26.580000000,1610.3
26.600000000,1858.1
26.620000000,1993.9
26.640000000,2252.8
26.660000000,2589.9
26.680000000,2852.2
26.700000000,3119.8
26.720000000,3162.4
26.740000000,3042.0
26.760000000,2704.5
26.780000000,2641.0
26.800000000,2457.8
26.820000000,2349.2
26.840000000,2111.6
26.860000000,2044.6
26.880000000,1844.6
26.900000000,1667.3
26.920000000,1634.7
26.940000000,1546.1
26.960000000,1402.3
26.980000000,1378.5
27.000000000,1276.6
27.020000000,1165.4
27.040000000,1096.4
27.060000000,1084.7
27.080000000,1039.2
27.100000000,939.3
27.120000000,861.1
27.140000000,863.3
27.160000000,828.9
27.180000000,737.6
27.200000000,703.3
27.220000000,724.3
27.240000000,684.5
27.260000000,633.4
27.280000000,642.8
27.300000000,642.2
27.320000000,595.4
27.340000000,586.9
27.360000000,542.2
27.380000000,535.2
27.400000000,501.4
27.420000000,522.5
27.440000000,527.8
27.460000000,519.0
27.480000000,516.6
27.500000000,504.2
27.520000000,472.4
27.540000000,483.7
27.560000000,415.4
27.580000000,473.0
27.600000000,464.4
27.620000000,482.3
27.640000000,440.5
27.660000000,391.5
27.680000000,449.2
27.700000000,449.9
27.720000000,437.7
27.740000000,425.5
27.760000000,421.5
27.780000000,409.6
27.800000000,420.7
27.820000000,418.2
27.840000000,419.1
27.860000000,476.3
27.880000000,432.1
27.900000000,446.6
27.920000000,453.1
27.940000000,444.3
27.960000000,431.3
27.980000000,416.2
28.000000000,431.2
28.020000000,399.0
28.040000000,377.0
28.060000000,391.3
28.080000000,414.1
28.100000000,357.2
28.120000000,340.5
28.140000000,394.2
28.160000000,367.3
28.180000000,372.2
28.200000000,362.7
28.220000000,351.2
28.240000000,347.4
28.260000000,352.3
28.280000000,335.1
28.300000000,382.3
28.320000000,329.2
28.340000000,361.5
28.360000000,361.2
28.380000000,331.5
28.400000000,332.7
28.420000000,347.4
28.440000000,338.6
28.460000000,350.8
28.480000000,328.4
28.500000000,384.7
28.520000000,321.4
28.540000000,332.4
28.560000000,350.2
28.580000000,313.9
28.600000000,346.5
28.620000000,333.1
28.640000000,388.0
28.660000000,358.6
28.680000000,322.9
28.700000000,329.1
28.720000000,338.6
28.740000000,317.2
28.760000000,350.3
28.780000000,344.4
28.800000000,346.9
28.820000000,381.3
28.840000000,334.8
28.860000000,338.3
28.880000000,320.0
28.900000000,344.0
28.920000000,353.3
28.940000000,353.7
28.960000000,365.3
28.980000000,363.4
29.000000000,329.2
29.020000000,334.6
29.040000000,378.3
29.060000000,373.4
29.080000000,401.6
29.100000000,387.8
29.120000000,378.0
29.140000000,366.2
29.160000000,358.4
29.180000000,402.7
29.200000000,393.9
29.220000000,386.0
29.240000000,371.5
29.260000000,390.1
29.280000000,371.8
29.300000000,382.8
29.320000000,366.4
29.340000000,341.7
29.360000000,348.2
29.380000000,372.3
29.400000000,331.6
29.420000000,366.3
29.440000000,330.7
29.460000000,354.5
29.480000000,342.2
29.500000000,327.0
29.520000000,333.7
29.540000000,335.6
29.560000000,350.8
29.580000000,357.8
29.600000000,328.3
29.620000000,367.3
29.640000000,327.8
29.660000000,360.5
29.680000000,350.9
29.700000000,314.7
29.720000000,363.2
29.740000000,383.3
29.760000000,353.5
29.780000000,338.8
29.800000000,348.4
29.820000000,344.4
29.840000000,403.8
29.860000000,370.7
29.880000000,371.9
29.900000000,414.0
29.920000000,385.2
29.940000000,399.7
29.960000000,354.4
29.980000000,345.9
30.000000000,353.4
30.020000000,356.9
30.040000000,360.4
30.060000000,334.5
30.080000000,367.3
30.100000000,367.3
30.120000000,314.6
30.140000000,336.2
30.160000000,301.0
30.180000000,332.7
30.200000000,314.7
30.220000000,332.5
30.240000000,358.1
30.260000000,316.8
30.280000000,307.2
30.300000000,318.1
30.320000000,305.5
30.340000000,287.4
30.360000000,304.2
30.380000000,308.1
30.400000000,324.9
30.420000000,285.5
30.440000000,312.0
30.460000000,317.4
30.480000000,299.4
30.500000000,302.2
30.520000000,306.7
30.540000000,285.1
30.560000000,313.5
30.580000000,312.1
30.600000000,309.7
30.620000000,320.3
30.640000000,311.2
30.660000000,302.0
30.680000000,288.4
30.700000000,302.9
30.720000000,308.2
30.740000000,307.6
30.760000000,286.6
30.780000000,302.6
30.800000000,308.0
30.820000000,308.9
30.840000000,321.3
30.860000000,292.0
30.880000000,268.1
30.900000000,337.8
30.920000000,296.3
30.940000000,304.5
30.960000000,312.3
30.980000000,293.2
31.000000000,297.3
31.020000000,340.8
31.040000000,287.2
31.060000000,304.4
31.080000000,285.3
31.100000000,336.5
31.120000000,300.5
31.140000000,294.5
31.160000000,305.9
31.180000000,284.6
31.200000000,286.9
31.220000000,331.4
31.240000000,292.4
31.260000000,318.1
31.280000000,305.2
31.300000000,324.8
31.320000000,331.9
31.340000000,286.9
31.360000000,319.2
31.380000000,333.9
31.400000000,303.4
31.420000000,285.2
31.440000000,317.8
31.460000000,291.8
31.480000000,296.0
31.500000000,290.7
31.520000000,302.0
31.540000000,290.3
31.560000000,281.5
31.580000000,286.4
31.600000000,288.2
31.620000000,292.2
31.640000000,257.4
31.660000000,287.3
31.680000000,252.8
31.700000000,255.8
31.720000000,271.9
31.740000000,258.3
31.760000000,290.8
31.780000000,273.6
31.800000000,274.3
31.820000000,276.7
31.840000000,270.6
31.860000000,258.8
31.880000000,251.6
31.900000000,297.8
31.920000000,282.9
31.940000000,280.7
31.960000000,283.8
31.980000000,265.2
32.000000000,299.3
32.020000000,281.9
32.040000000,297.0
32.060000000,261.7
32.080000000,262.8
32.100000000,289.1
32.120000000,266.9
32.140000000,255.8
32.160000000,263.2
32.180000000,264.1
32.200000000,259.9
32.220000000,262.6
32.240000000,250.4
32.260000000,241.8
32.280000000,278.3
32.300000000,233.7
32.320000000,243.1
32.340000000,208.7
32.360000000,228.8
32.380000000,222.6
32.400000000,256.8
32.420000000,245.4
32.440000000,226.7
32.460000000,257.2
32.480000000,236.2
32.500000000,222.8
32.520000000,233.4
32.540000000,201.2
32.560000000,222.6
32.580000000,213.8
32.600000000,206.6
32.620000000,210.4
32.640000000,190.9
32.660000000,227.0
32.680000000,235.1
32.700000000,205.3
32.720000000,201.4
32.740000000,219.9
32.760000000,217.5
32.780000000,203.9
32.800000000,209.8
32.820000000,189.9
32.840000000,186.9
32.860000000,210.0
32.880000000,191.7
32.900000000,209.5
32.920000000,216.3
32.940000000,203.2
32.960000000,233.3
32.980000000,204.9
33.000000000,185.9
33.020000000,231.7
33.040000000,190.6
33.060000000,199.4
33.080000000,211.1
33.100000000,194.4
33.120000000,187.9
33.140000000,199.5
33.160000000,220.2
33.180000000,219.4
33.200000000,226.2
33.220000000,218.4
33.240000000,214.7
33.260000000,234.8
33.280000000,201.5
33.300000000,201.5
33.320000000,206.6
33.340000000,215.6
33.360000000,212.1
33.380000000,200.8
33.400000000,199.7
33.420000000,228.9
33.440000000,205.7
33.460000000,230.0
33.480000000,228.3
33.500000000,208.1
33.520000000,199.0
33.540000000,210.0
33.560000000,232.4
33.580000000,215.0
33.600000000,233.2
33.620000000,216.9
33.640000000,209.2
33.660000000,222.7
33.680000000,210.7
33.700000000,204.6
33.720000000,236.0
33.740000000,214.9
33.760000000,178.7
33.780000000,201.0
33.800000000,203.7
33.820000000,205.3
33.840000000,193.1
33.860000000,205.9
33.880000000,185.8
33.900000000,207.9
33.920000000,192.0
33.940000000,190.4
33.960000000,178.9
33.980000000,213.8
34.000000000,216.0
34.020000000,179.2
34.040000000,207.9
34.060000000,204.5
34.080000000,169.2
34.100000000,204.9
34.120000000,203.9
34.140000000,188.9
34.160000000,179.4
34.180000000,204.2
34.200000000,191.7
34.220000000,212.2
34.240000000,190.1
34.260000000,183.0
34.280000000,174.6
34.300000000,213.2
34.320000000,201.6
34.340000000,197.4
34.360000000,222.7
34.380000000,209.4
34.400000000,212.9
34.420000000,225.5
34.440000000,242.2
34.460000000,244.1
34.480000000,235.7
34.500000000,270.6
34.520000000,279.1
34.540000000,311.6
34.560000000,336.4
34.580000000,331.6
34.600000000,368.0
34.620000000,384.6
34.640000000,396.2
34.660000000,396.0
34.680000000,389.3
34.700000000,437.1
34.720000000,450.9
34.740000000,466.7
34.760000000,444.6
34.780000000,474.9
34.800000000,443.5
34.820000000,480.6
34.840000000,523.7
34.860000000,480.4
34.880000000,513.7
34.900000000,508.9
34.920000000,553.9
34.940000000,546.7
34.960000000,553.7
34.980000000,607.0
35.000000000,606.2
35.020000000,655.5
35.040000000,666.6
35.060000000,655.6
35.080000000,607.6
35.100000000,605.7
35.120000000,611.2
35.140000000,595.7
35.160000000,542.8
35.180000000,533.2
35.200000000,474.0
35.220000000,461.7
35.240000000,446.0
35.260000000,419.9
35.280000000,399.7
35.300000000,379.5
35.320000000,374.2
35.340000000,377.7
35.360000000,358.6
35.380000000,321.9
35.400000000,302.8
35.420000000,310.9
35.440000000,295.0
35.460000000,338.0
35.480000000,314.2
35.500000000,305.8
35.520000000,308.5
35.540000000,327.1
35.560000000,329.4
35.580000000,314.4
35.600000000,276.9
35.620000000,302.5
35.640000000,327.8
35.660000000,314.3
35.680000000,298.0
35.700000000,291.4
35.720000000,335.0
35.740000000,325.7
35.760000000,352.9
35.780000000,341.8
35.800000000,348.0
35.820000000,356.7
35.840000000,327.2
35.860000000,320.8
35.880000000,343.1
35.900000000,366.8
35.920000000,354.5
35.940000000,371.7
35.960000000,348.6
35.980000000,363.8
36.000000000,372.0
36.020000000,314.7
36.040000000,320.6
36.060000000,358.6
36.080000000,339.0
36.100000000,334.1
36.120000000,329.2
36.140000000,319.8
36.160000000,290.7
36.180000000,285.4
36.200000000,272.8
36.220000000,310.2
36.240000000,296.7
36.260000000,286.1
36.280000000,272.4
36.300000000,285.3
36.320000000,266.8
36.340000000,270.1
36.360000000,271.2
36.380000000,256.7
36.400000000,268.1
36.420000000,260.2
36.440000000,272.4
36.460000000,292.6
36.480000000,291.9
36.500000000,271.8
36.520000000,315.4
36.540000000,302.8
36.560000000,337.2
36.580000000,359.7
36.600000000,379.8
36.620000000,350.0
36.640000000,350.1
36.660000000,332.7
36.680000000,331.4
36.700000000,319.6
36.720000000,285.0
36.740000000,298.7
36.760000000,284.7
36.780000000,263.1
36.800000000,292.4
36.820000000,270.5
36.840000000,251.4
36.860000000,272.8
36.880000000,287.0
36.900000000,255.6
36.920000000,252.8
36.940000000,272.4
36.960000000,265.9
36.980000000,260.3
37.000000000,270.3
37.020000000,258.0
37.040000000,275.7
37.060000000,290.0
37.080000000,255.6
37.100000000,254.3
37.120000000,258.6
37.140000000,267.6
37.160000000,238.0
37.180000000,275.9
37.200000000,277.2
37.220000000,221.8
37.240000000,237.7
37.260000000,257.9
37.280000000,266.8
37.300000000,263.3
37.320000000,248.3
37.340000000,259.9
37.360000000,248.1
37.380000000,252.8
37.400000000,265.4
37.420000000,254.4
37.440000000,288.4
37.460000000,296.0
37.480000000,281.6
37.500000000,282.9
37.520000000,316.8
37.540000000,308.7
37.560000000,317.3
37.580000000,315.7
37.600000000,301.0
37.620000000,314.3
37.640000000,317.0
37.660000000,306.0
37.680000000,307.2
37.700000000,315.0
37.720000000,343.9
37.740000000,338.5
37.760000000,330.5
37.780000000,362.3
37.800000000,339.2
37.820000000,367.7
37.840000000,356.6
37.860000000,355.7
37.880000000,357.1
37.900000000,352.5
37.920000000,357.4
37.940000000,335.9
37.960000000,336.6
37.980000000,314.2
38.000000000,296.5
38.020000000,326.2
38.040000000,308.5
38.060000000,286.6
38.080000000,286.1
38.100000000,278.4
38.120000000,271.6
38.140000000,268.9
38.160000000,253.8
38.180000000,270.0
38.200000000,274.0
38.220000000,289.1
38.240000000,277.7
38.260000000,279.0
38.280000000,271.4
38.300000000,285.2
38.320000000,251.5
38.340000000,276.0
38.360000000,252.6
38.380000000,254.3
38.400000000,272.9
38.420000000,257.9
38.440000000,250.7
38.460000000,253.8
38.480000000,254.4
38.500000000,231.9
38.520000000,263.8
38.540000000,238.7
38.560000000,238.0
38.580000000,252.1
38.600000000,239.0
38.620000000,219.6
38.640000000,236.1
38.660000000,252.6
38.680000000,222.4
38.700000000,233.2
38.720000000,226.3
38.740000000,231.9
38.760000000,208.0
38.780000000,212.4
38.800000000,223.1
38.820000000,209.4
38.840000000,208.5
38.860000000,201.4
38.880000000,205.4
38.900000000,197.0
38.920000000,196.8
38.940000000,188.3
38.960000000,191.3
38.980000000,204.0
39.000000000,202.0
39.020000000,213.5
39.040000000,219.1
39.060000000,217.6
39.080000000,218.8
39.100000000,179.3
39.120000000,204.3
39.140000000,234.7
39.160000000,222.3
39.180000000,220.1
39.200000000,216.7
39.220000000,194.1
39.240000000,184.4
39.260000000,215.0
39.280000000,207.5
39.300000000,187.3
39.320000000,203.5
39.340000000,194.6
39.360000000,194.0
39.380000000,204.2
39.400000000,209.5
39.420000000,207.5
39.440000000,219.2
39.460000000,219.8
39.480000000,233.4
39.500000000,230.5
39.520000000,249.2
39.540000000,268.8
39.560000000,251.8
39.580000000,238.5
39.600000000,237.9
39.620000000,214.2
39.640000000,209.1
39.660000000,210.5
39.680000000,192.2
39.700000000,208.2
39.720000000,182.5
39.740000000,186.5
39.760000000,166.5
39.780000000,171.3
39.800000000,167.3
39.820000000,158.0
39.840000000,164.5
39.860000000,172.0
39.880000000,175.7
39.900000000,184.3
39.920000000,199.1
39.940000000,168.1
39.960000000,191.3
39.980000000,188.0
40.000000000,199.9
40.020000000,180.3
40.040000000,195.5
40.060000000,207.0
40.080000000,221.7
40.100000000,213.3
40.120000000,235.0
40.140000000,236.2
40.160000000,206.0
40.180000000,231.4
40.200000000,210.8
40.220000000,194.6
40.240000000,226.8
40.260000000,229.7
40.280000000,245.1
40.300000000,228.0
40.320000000,233.4
40.340000000,233.7
40.360000000,242.5
40.380000000,229.7
40.400000000,222.7
40.420000000,237.3
40.440000000,235.8
40.460000000,198.6
40.480000000,188.2
40.500000000,203.0
40.520000000,177.3
40.540000000,174.8
40.560000000,169.6
40.580000000,200.2
40.600000000,207.3
40.620000000,191.1
40.640000000,186.7
40.660000000,179.5
40.680000000,201.9
40.700000000,170.7
40.720000000,194.9
40.740000000,181.2
40.760000000,188.6
40.780000000,194.0
40.800000000,180.4
40.820000000,202.7
40.840000000,192.7
40.860000000,199.5
40.880000000,197.8
40.900000000,191.9
40.920000000,218.6
40.940000000,190.7
40.960000000,192.6
40.980000000,165.0
41.000000000,180.6
41.020000000,192.2
41.040000000,227.3
41.060000000,211.0
41.080000000,232.1
41.100000000,212.3
41.120000000,198.3
41.140000000,209.3
41.160000000,187.6
41.180000000,195.5
41.200000000,192.4
41.220000000,190.6
41.240000000,209.1
41.260000000,183.4
41.280000000,197.4
41.300000000,191.0
41.320000000,197.4
41.340000000,194.1
41.360000000,209.1
41.380000000,196.6
41.400000000,209.6
41.420000000,199.6
41.440000000,193.3
41.460000000,195.9
41.480000000,179.7
41.500000000,214.4
41.520000000,209.6
41.540000000,178.3
41.560000000,192.0
41.580000000,201.1
41.600000000,187.6
41.620000000,198.8
41.640000000,204.3
41.660000000,196.7
41.680000000,179.0
41.700000000,198.1
41.720000000,182.0
41.740000000,186.9
41.760000000,198.4
41.780000000,201.7
41.800000000,220.9
41.820000000,191.9
41.840000000,186.0
41.860000000,213.9
41.880000000,217.1
41.900000000,190.2
41.920000000,195.7
41.940000000,203.5
41.960000000,192.6
41.980000000,233.8
42.000000000,225.8
42.020000000,206.1
42.040000000,222.9
42.060000000,226.0
42.080000000,218.2
42.100000000,224.8
42.120000000,209.8
42.140000000,236.8
42.160000000,237.1
42.180000000,218.9
42.200000000,220.3
42.220000000,224.4
42.240000000,254.2
42.260000000,232.4
42.280000000,229.7
42.300000000,236.4
42.320000000,294.9
42.340000000,244.4
42.360000000,259.9
42.380000000,261.7
42.400000000,240.4
42.420000000,260.6
42.440000000,268.3
42.460000000,270.1
42.480000000,297.2
42.500000000,274.9
42.520000000,278.9
42.540000000,273.2
42.560000000,242.9
42.580000000,238.2
42.600000000,251.8
42.620000000,263.6
42.640000000,266.5
42.660000000,211.0
42.680000000,227.4
42.700000000,231.7
42.720000000,211.1
42.740000000,205.0
42.760000000,193.4
42.780000000,222.5
42.800000000,197.0
42.820000000,196.0
42.840000000,186.4
42.860000000,182.8
42.880000000,193.1
42.900000000,194.2
42.920000000,209.4
42.940000000,183.7
42.960000000,176.0
42.980000000,210.0
43.000000000,201.4
43.020000000,205.6
43.040000000,188.0
43.060000000,190.9
43.080000000,188.9
43.100000000,165.7
43.120000000,183.9
43.140000000,190.3
43.160000000,180.4
43.180000000,174.7
43.200000000,174.1
43.220000000,180.7
43.240000000,180.1
43.260000000,176.2
43.280000000,174.2
43.300000000,186.6
43.320000000,189.2
43.340000000,163.8
43.360000000,173.6
43.380000000,163.0
43.400000000,199.3
43.420000000,199.9
43.440000000,196.1
43.460000000,179.9
43.480000000,159.4
43.500000000,183.5
43.520000000,160.7
43.540000000,177.4
43.560000000,176.8
43.580000000,202.0
43.600000000,174.4
43.620000000,164.2
43.640000000,187.3
43.660000000,197.4
43.680000000,186.6
43.700000000,191.6
43.720000000,190.2
43.740000000,179.0
43.760000000,194.0
43.780000000,192.5
43.800000000,176.0
43.820000000,193.0
43.840000000,211.5
43.860000000,177.1
43.880000000,189.8
43.900000000,191.4
43.920000000,213.1
43.940000000,205.7
43.960000000,211.0
43.980000000,172.0
44.000000000,205.6
44.020000000,196.9
44.040000000,181.4
44.060000000,210.8
44.080000000,180.3
44.100000000,192.7
44.120000000,186.0
44.140000000,198.6
44.160000000,180.0
44.180000000,186.5
44.200000000,194.9
44.220000000,192.1
44.240000000,227.8
44.260000000,197.6
44.280000000,199.5
44.300000000,201.5
44.320000000,203.3
44.340000000,203.4
44.360000000,207.6
44.380000000,208.6
44.400000000,186.9
44.420000000,197.5
44.440000000,200.6
44.460000000,214.2
44.480000000,219.7
44.500000000,203.6
44.520000000,226.8
44.540000000,220.0
44.560000000,216.0
44.580000000,236.2
44.600000000,220.7
44.620000000,215.9
44.640000000,209.3
44.660000000,257.4
44.680000000,266.7
44.700000000,241.0
44.720000000,271.4
44.740000000,243.9
44.760000000,262.4
44.780000000,262.2
44.800000000,247.7
44.820000000,277.6
44.840000000,295.0
44.860000000,295.1
44.880000000,311.5
44.900000000,308.4
44.920000000,316.8
44.940000000,321.3
44.960000000,345.6
44.980000000,351.9
45.000000000,387.3
45.020000000,377.9
45.040000000,393.2
45.060000000,422.1
45.080000000,429.9
45.100000000,418.2
45.120000000,473.1
45.140000000,491.2
45.160000000,534.7
45.180000000,529.2
45.200000000,581.2
45.220000000,588.6
45.240000000,605.6
45.260000000,671.8
45.280000000,707.4
45.300000000,643.0
45.320000000,715.4
45.340000000,734.6
45.360000000,753.7
45.380000000,736.2
45.400000000,722.4
45.420000000,745.2
45.440000000,777.3
45.460000000,741.5
45.480000000,698.1
45.500000000,759.1
45.520000000,655.7
45.540000000,688.0
45.560000000,679.6
45.580000000,596.9
45.600000000,559.9
45.620000000,588.5
45.640000000,563.8
45.660000000,519.7
45.680000000,501.6
45.700000000,497.5
45.720000000,465.8
45.740000000,477.4
45.760000000,503.7
45.780000000,474.7
45.800000000,422.7
45.820000000,423.9
45.840000000,427.3
45.860000000,412.5
45.880000000,403.2
45.900000000,391.4
45.920000000,371.8
45.940000000,360.9
45.960000000,361.2
45.980000000,338.9
46.000000000,328.5
46.020000000,350.5
46.040000000,286.5
46.060000000,343.6
46.080000000,305.6
46.100000000,304.6
46.120000000,268.8
46.140000000,291.9
46.160000000,259.4
46.180000000,278.8
46.200000000,264.6
46.220000000,243.3
46.240000000,253.6
46.260000000,229.9
46.280000000,244.1
46.300000000,237.7
46.320000000,263.7
46.340000000,258.1
46.360000000,245.9
46.380000000,246.5
46.400000000,221.6
46.420000000,224.9
46.440000000,238.8
46.460000000,236.1
46.480000000,210.1
46.500000000,210.4
46.520000000,224.2
46.540000000,255.2
46.560000000,210.7
46.580000000,204.1
46.600000000,186.0
46.620000000,207.4
46.640000000,200.8
46.660000000,212.4
46.680000000,196.5
46.700000000,206.4
46.720000000,205.6
46.740000000,188.0
46.760000000,203.8
46.780000000,205.1
46.800000000,191.1
46.820000000,205.2
46.840000000,184.5
46.860000000,177.5
46.880000000,183.5
46.900000000,190.5
46.920000000,166.0
46.940000000,181.4
46.960000000,177.3
46.980000000,186.2
47.000000000,165.5
47.020000000,169.0
47.040000000,163.1
47.060000000,167.5
47.080000000,161.4
47.100000000,164.4
47.120000000,156.6
47.140000000,170.0
47.160000000,167.0
47.180000000,164.8
47.200000000,156.6
47.220000000,150.8
47.240000000,162.2
47.260000000,153.7
47.280000000,152.1
47.300000000,147.3
47.320000000,179.2
47.340000000,166.5
47.360000000,156.3
47.380000000,133.7
47.400000000,145.5
47.420000000,163.7
47.440000000,152.5
47.460000000,137.2
47.480000000,147.3
47.500000000,141.2
47.520000000,163.8
47.540000000,148.0
47.560000000,148.0
47.580000000,136.2
47.600000000,159.4
47.620000000,172.7
47.640000000,129.0
47.660000000,159.0
47.680000000,156.5
47.700000000,156.8
47.720000000,156.0
47.740000000,167.7
47.760000000,148.7
47.780000000,158.2
47.800000000,147.3
47.820000000,150.9
47.840000000,167.8
47.860000000,160.3
47.880000000,144.2
47.900000000,162.4
47.920000000,161.2
47.940000000,183.1
47.960000000,153.6
47.980000000,187.9
48.000000000,200.4
48.020000000,186.2
48.040000000,206.2
48.060000000,203.8
48.080000000,194.6
48.100000000,204.2
48.120000000,191.2
48.140000000,171.8
48.160000000,193.2
48.180000000,187.2
48.200000000,215.4
48.220000000,168.7
48.240000000,174.7
48.260000000,155.4
48.280000000,180.3
48.300000000,142.3
48.320000000,156.5
48.340000000,142.9
48.360000000,163.5
48.380000000,160.4
48.400000000,147.8
48.420000000,148.5
48.440000000,140.8
48.460000000,135.4
48.480000000,154.3
48.500000000,151.3
48.520000000,160.3
48.540000000,145.3
48.560000000,177.8
48.580000000,134.0
48.600000000,129.0
48.620000000,157.4
48.640000000,157.1
48.660000000,158.1
48.680000000,126.6
48.700000000,133.3
48.720000000,152.5
48.740000000,131.1
48.760000000,129.5
48.780000000,150.7
48.800000000,150.6
48.820000000,140.2
48.840000000,132.0
48.860000000,139.0
48.880000000,132.1
48.900000000,144.8
48.920000000,140.1
48.940000000,162.8
48.960000000,141.4
48.980000000,142.4
49.000000000,141.7
49.020000000,156.3
49.040000000,143.2
49.060000000,146.3
49.080000000,137.0
49.100000000,149.2
49.120000000,158.8
49.140000000,133.7
49.160000000,160.0
49.180000000,140.6
49.200000000,139.1
49.220000000,142.9
49.240000000,132.3
49.260000000,134.4
49.280000000,144.9
49.300000000,147.4
49.320000000,157.5
49.340000000,139.5
49.360000000,111.6
49.380000000,141.5
49.400000000,148.3
49.420000000,134.6
49.440000000,140.6
49.460000000,147.3
49.480000000,157.0
49.500000000,139.4
49.520000000,124.0
49.540000000,144.1
49.560000000,143.2
49.580000000,162.2
49.600000000,143.9
49.620000000,158.3
49.640000000,151.7
49.660000000,131.0
49.680000000,161.0
49.700000000,154.1
49.720000000,127.2
49.740000000,116.2
49.760000000,138.5
49.780000000,145.7
49.800000000,158.0
49.820000000,161.5
49.840000000,129.0
49.860000000,142.3
49.880000000,126.8
49.900000000,135.9
49.920000000,138.0
49.940000000,141.0
49.960000000,157.9
49.980000000,143.7
50.000000000,148.7
50.020000000,164.3
50.040000000,143.7
50.060000000,161.7
50.080000000,202.7
50.100000000,191.9
50.120000000,214.7
50.140000000,218.2
50.160000000,256.3
50.180000000,295.7
50.200000000,267.8
50.220000000,283.8
50.240000000,232.4
50.260000000,199.7
50.280000000,208.7
50.300000000,217.0
50.320000000,219.8
50.340000000,197.2
50.360000000,186.4
50.380000000,174.4
50.400000000,168.9
50.420000000,165.1
50.440000000,146.4
50.460000000,136.5
50.480000000,152.8
50.500000000,131.0
50.520000000,137.8
50.540000000,140.4
50.560000000,146.7
50.580000000,150.0
50.600000000,141.3
50.620000000,156.9
50.640000000,134.3
50.660000000,164.2
50.680000000,167.9
50.700000000,149.9
50.720000000,156.7
50.740000000,151.9
50.760000000,141.2
50.780000000,151.8
50.800000000,155.4
50.820000000,150.4
50.840000000,145.2
50.860000000,148.4
50.880000000,151.2
50.900000000,161.0
50.920000000,164.2
50.940000000,151.0
50.960000000,154.3
50.980000000,143.6
51.000000000,157.5
51.020000000,169.0
51.040000000,144.2
51.060000000,149.0
51.080000000,154.2
51.100000000,148.7
51.120000000,150.5
51.140000000,136.4
51.160000000,143.4
51.180000000,156.6
51.200000000,142.0
51.220000000,164.8
51.240000000,154.5
51.260000000,132.8
51.280000000,154.9
51.300000000,163.5
51.320000000,147.2
51.340000000,132.0
51.360000000,142.7
51.380000000,157.4
51.400000000,150.0
51.420000000,149.6
51.440000000,121.3
51.460000000,133.0
51.480000000,147.2
51.500000000,132.7
51.520000000,114.0
51.540000000,127.4
51.560000000,141.8
51.580000000,147.6
51.600000000,126.7
51.620000000,127.8
51.640000000,155.1
51.660000000,157.7
51.680000000,116.8
51.700000000,125.6
51.720000000,132.6
51.740000000,134.3
51.760000000,143.8
51.780000000,139.0
51.800000000,139.4
51.820000000,146.1
51.840000000,115.2
51.860000000,126.4
51.880000000,134.0
51.900000000,144.1
51.920000000,128.9
51.940000000,133.5
51.960000000,146.9
51.980000000,121.4
52.000000000,133.5
52.020000000,144.4
52.040000000,127.9
52.060000000,151.8
52.080000000,126.4
52.100000000,132.4
52.120000000,141.7
52.140000000,135.5
52.160000000,146.6
52.180000000,127.6
52.200000000,137.3
52.220000000,133.5
52.240000000,129.4
52.260000000,135.8
52.280000000,135.4
52.300000000,153.1
52.320000000,151.0
52.340000000,147.0
52.360000000,137.2
52.380000000,129.8
52.400000000,129.6
52.420000000,122.8
52.440000000,149.3
52.460000000,145.9
52.480000000,133.8
52.500000000,128.2
52.520000000,156.8
52.540000000,130.2
52.560000000,145.7
52.580000000,139.0
52.600000000,149.3
52.620000000,148.0
52.640000000,137.8
52.660000000,166.2
52.680000000,149.3
52.700000000,152.7
52.720000000,146.2
52.740000000,167.6
52.760000000,145.0
52.780000000,165.2
52.800000000,155.2
52.820000000,160.2
52.840000000,153.9
52.860000000,139.3
52.880000000,180.4
52.900000000,162.3
52.920000000,170.1
52.940000000,168.1
52.960000000,159.6
52.980000000,172.4
53.000000000,165.6
53.020000000,171.2
53.040000000,154.6
53.060000000,184.7
53.080000000,154.1
53.100000000,175.9
53.120000000,165.3
53.140000000,180.9
53.160000000,164.4
53.180000000,160.9
53.200000000,144.5
53.220000000,168.8
53.240000000,180.5
53.260000000,180.2
53.280000000,185.0
53.300000000,152.0
53.320000000,157.9
53.340000000,165.4
53.360000000,171.4
53.380000000,176.3
53.400000000,144.1
53.420000000,162.0
53.440000000,164.8
53.460000000,155.6
53.480000000,193.8
53.500000000,167.5
53.520000000,156.1
53.540000000,167.1
53.560000000,169.0
53.580000000,170.8
53.600000000,159.1
53.620000000,151.6
53.640000000,154.4
53.660000000,174.7
53.680000000,173.5
53.700000000,182.1
53.720000000,182.6
53.740000000,182.4
53.760000000,172.4
53.780000000,171.8
53.800000000,178.6
53.820000000,188.6
53.840000000,180.2
53.860000000,196.6
53.880000000,192.3
53.900000000,187.0
53.920000000,201.6
53.940000000,211.3
53.960000000,216.9
53.980000000,206.3
54.000000000,211.0
54.020000000,207.0
54.040000000,216.8
54.060000000,224.6
54.080000000,197.9
54.100000000,214.3
54.120000000,206.5
54.140000000,198.6
54.160000000,211.6
54.180000000,211.5
54.200000000,188.7
54.220000000,215.4
54.240000000,245.2
54.260000000,193.3
54.280000000,208.6
54.300000000,195.2
54.320000000,201.1
54.340000000,212.6
54.360000000,221.0
54.380000000,205.8
54.400000000,187.2
54.420000000,205.6
54.440000000,209.8
54.460000000,214.5
54.480000000,217.7
54.500000000,205.1
54.520000000,201.8
54.540000000,186.5
54.560000000,210.6
54.580000000,218.2
54.600000000,234.8
54.620000000,206.0
54.640000000,183.0
54.660000000,206.1
54.680000000,221.9
54.700000000,223.5
54.720000000,192.7
54.740000000,238.8
54.760000000,228.4
54.780000000,208.5
54.800000000,223.7
54.820000000,235.0
54.840000000,233.7
54.860000000,265.2
54.880000000,265.6
54.900000000,274.2
54.920000000,265.2
54.940000000,281.3
54.960000000,293.4
54.980000000,260.6
55.000000000,268.4
55.020000000,286.6
55.040000000,314.5
55.060000000,283.3
55.080000000,286.5
55.100000000,307.7
55.120000000,320.6
55.140000000,315.6
55.160000000,278.1
55.180000000,294.3
55.200000000,302.0
55.220000000,315.6
55.240000000,306.1
55.260000000,252.5
55.280000000,297.8
55.300000000,290.3
55.320000000,315.3
55.340000000,277.7
55.360000000,276.1
55.380000000,308.3
55.400000000,285.0
55.420000000,311.0
55.440000000,275.0
55.460000000,291.7
55.480000000,259.7
55.500000000,281.7
55.520000000,285.5
55.540000000,256.4
55.560000000,283.8
55.580000000,257.2
55.600000000,288.7
55.620000000,276.8
55.640000000,269.0
55.660000000,279.0
55.680000000,290.8
55.700000000,271.8
55.720000000,252.2
55.740000000,272.4
55.760000000,268.4
55.780000000,273.0
55.800000000,283.4
55.820000000,237.9
55.840000000,292.0
55.860000000,254.6
55.880000000,293.8
55.900000000,269.8
55.920000000,227.1
55.940000000,266.0
55.960000000,245.3
55.980000000,258.7
56.000000000,274.5
56.020000000,265.6
56.040000000,252.6
56.060000000,264.1
56.080000000,259.9
56.100000000,234.5
56.120000000,217.1
56.140000000,239.5
56.160000000,254.6
56.180000000,199.2
56.200000000,238.9
56.220000000,204.7
56.240000000,223.8
56.260000000,237.9
56.280000000,226.0
56.300000000,235.0
56.320000000,234.3
56.340000000,233.0
56.360000000,224.7
56.380000000,220.1
56.400000000,204.4
56.420000000,215.5
56.440000000,209.1
56.460000000,214.3
56.480000000,206.1
56.500000000,227.5
56.520000000,228.2
56.540000000,215.0
56.560000000,215.9
56.580000000,225.0
56.600000000,206.3
56.620000000,201.1
56.640000000,204.4
56.660000000,220.7
56.680000000,204.8
56.700000000,216.7
56.720000000,204.0
56.740000000,198.1
56.760000000,192.3
56.780000000,197.1
56.800000000,195.1
56.820000000,198.0
56.840000000,172.7
56.860000000,210.8
56.880000000,189.0
56.900000000,199.4
56.920000000,182.5
56.940000000,196.6
56.960000000,171.4
56.980000000,176.1
57.000000000,182.7
57.020000000,198.4
57.040000000,173.8
57.060000000,195.1
57.080000000,172.1
57.100000000,189.5
57.120000000,173.2
57.140000000,187.1
57.160000000,166.1
57.180000000,181.5
57.200000000,191.6
57.220000000,192.8
57.240000000,185.1
57.260000000,167.3
57.280000000,176.9
57.300000000,177.0
57.320000000,172.1
57.340000000,145.5
57.360000000,178.4
57.380000000,161.0
57.400000000,178.5
57.420000000,165.1
57.440000000,188.4
57.460000000,164.4
57.480000000,168.1
57.500000000,146.2
57.520000000,162.1
57.540000000,180.5
57.560000000,158.8
57.580000000,144.2
57.600000000,155.4
57.620000000,176.9
57.640000000,187.0
57.660000000,174.0
57.680000000,158.3
57.700000000,177.8
57.720000000,178.4
57.740000000,163.3
57.760000000,152.2
57.780000000,172.4
57.800000000,150.4
57.820000000,184.5
57.840000000,154.9
57.860000000,154.8
57.880000000,156.0
57.900000000,158.2
57.920000000,158.6
57.940000000,178.0
57.960000000,141.9
57.980000000,152.1
58.000000000,146.5
58.020000000,158.0
58.040000000,155.7
58.060000000,181.0
58.080000000,174.1
58.100000000,153.4
58.120000000,170.7
58.140000000,153.7
58.160000000,162.6
58.180000000,178.3
58.200000000,149.5
58.220000000,158.0
58.240000000,149.5
58.260000000,158.0
58.280000000,133.8
58.300000000,168.4
58.320000000,142.8
58.340000000,155.2
58.360000000,164.0
58.380000000,132.2
58.400000000,126.9
58.420000000,132.1
58.440000000,148.6
58.460000000,130.8
58.480000000,147.0
58.500000000,147.8
58.520000000,143.8
58.540000000,147.0
58.560000000,186.4
58.580000000,142.2
58.600000000,147.4
58.620000000,148.9
58.640000000,151.1
58.660000000,156.4
58.680000000,148.0
58.700000000,136.4
58.720000000,149.1
58.740000000,146.5
58.760000000,152.8
58.780000000,158.7
58.800000000,155.1
58.820000000,152.8
58.840000000,160.7
58.860000000,170.5
58.880000000,129.2
58.900000000,143.8
58.920000000,137.9
58.940000000,159.2
58.960000000,165.2
58.980000000,140.6
59.000000000,157.1
59.020000000,167.8
59.040000000,161.0
59.060000000,170.5
59.080000000,148.1
59.100000000,150.2
59.120000000,150.1
59.140000000,158.6
59.160000000,166.8
59.180000000,149.6
59.200000000,139.5
59.220000000,166.6
59.240000000,146.9
59.260000000,170.6
59.280000000,139.6
59.300000000,169.5
59.320000000,148.3
59.340000000,167.8
59.360000000,177.4
59.380000000,157.8
59.400000000,153.7
59.420000000,129.2
59.440000000,148.0
59.460000000,145.7
59.480000000,175.8
59.500000000,172.4
59.520000000,156.9
59.540000000,170.0
59.560000000,166.1
59.580000000,153.7
59.600000000,153.9
59.620000000,156.3
59.640000000,151.3
59.660000000,179.9
59.680000000,180.3
59.700000000,158.8
59.720000000,136.7
59.740000000,183.3
59.760000000,182.2
59.780000000,175.7
59.800000000,164.2
59.820000000,187.0
59.840000000,184.3
59.860000000,175.1
59.880000000,187.8
59.900000000,188.8
59.920000000,191.7
59.940000000,190.1
59.960000000,250.5
59.980000000,266.2
60.000000000,252.6
60.020000000,246.8
60.040000000,204.4
60.060000000,204.2
60.080000000,227.5
60.100000000,215.0
60.120000000,224.1
60.140000000,233.0
60.160000000,202.1
60.180000000,211.2
60.200000000,204.5
60.220000000,214.5
60.240000000,190.1
60.260000000,174.4
60.280000000,174.9
60.300000000,160.8
60.320000000,180.3
60.340000000,196.0
60.360000000,161.7
60.380000000,181.9
60.400000000,183.5
60.420000000,175.6
60.440000000,176.5
60.460000000,181.9
60.480000000,172.0
60.500000000,184.8
60.520000000,181.6
60.540000000,169.2
60.560000000,177.2
60.580000000,181.6
60.600000000,202.9
60.620000000,185.6
60.640000000,174.0
60.660000000,183.0
60.680000000,196.6
60.700000000,198.6
60.720000000,188.6
60.740000000,177.5
60.760000000,185.0
60.780000000,180.0
60.800000000,167.5
60.820000000,201.1
60.840000000,182.9
60.860000000,184.3
60.880000000,177.8
60.900000000,179.1
60.920000000,191.7
60.940000000,185.6
60.960000000,212.8
60.980000000,171.6
61.000000000,174.8
61.020000000,194.7
61.040000000,176.3
61.060000000,181.5
61.080000000,192.5
61.100000000,176.1
61.120000000,195.4
61.140000000,173.0
61.160000000,200.5
61.180000000,180.1
61.200000000,185.8
61.220000000,186.3
61.240000000,187.1
61.260000000,164.5
61.280000000,203.5
61.300000000,179.6
61.320000000,181.0
61.340000000,174.2
61.360000000,181.0
61.380000000,190.8
61.400000000,200.5
61.420000000,186.2
61.440000000,182.2
61.460000000,198.6
61.480000000,219.1
61.500000000,204.1
61.520000000,196.8
61.540000000,204.5
61.560000000,214.8
61.580000000,202.8
61.600000000,221.5
61.620000000,223.5
61.640000000,199.0
61.660000000,253.9
61.680000000,233.2
61.700000000,254.0
61.720000000,247.9
61.740000000,281.3
61.760000000,252.2
61.780000000,333.2
61.800000000,325.7
61.820000000,325.5
61.840000000,333.6
61.860000000,306.2
61.880000000,381.0
61.900000000,355.1
61.920000000,322.9
61.940000000,316.3
61.960000000,324.0
61.980000000,312.3
62.000000000,308.2
62.020000000,270.2
62.040000000,301.9
62.060000000,297.7
62.080000000,299.6
62.100000000,261.4
62.120000000,236.4
62.140000000,265.6
62.160000000,252.5
62.180000000,260.9
62.200000000,231.7
62.220000000,212.5
62.240000000,230.2
62.260000000,238.7
62.280000000,218.5
62.300000000,245.4
62.320000000,225.7
62.340000000,234.8
62.360000000,220.9
62.380000000,245.0
62.400000000,204.9
62.420000000,204.9
62.440000000,216.6
62.460000000,192.9
62.480000000,210.6
62.500000000,191.1
62.520000000,227.5
62.540000000,187.0
62.560000000,186.8
62.580000000,183.9
62.600000000,199.0
62.620000000,177.0
62.640000000,211.6
62.660000000,203.6
62.680000000,210.8
62.700000000,195.5
62.720000000,201.6
62.740000000,204.7
62.760000000,197.6
62.780000000,171.8
62.800000000,174.0
62.820000000,193.7
62.840000000,174.5
62.860000000,168.0
62.880000000,162.9
62.900000000,187.5
62.920000000,176.7
62.940000000,183.0
62.960000000,188.0
62.980000000,197.3
63.000000000,153.7
63.020000000,158.8
63.040000000,158.0
63.060000000,169.7
63.080000000,185.0
63.100000000,165.0
63.120000000,153.8
63.140000000,167.2
63.160000000,182.8
63.180000000,154.9
63.200000000,160.7
63.220000000,162.5
63.240000000,159.9
63.260000000,159.2
63.280000000,167.9
63.300000000,163.0
63.320000000,184.1
63.340000000,185.2
63.360000000,153.9
63.380000000,163.2
63.400000000,152.5
63.420000000,174.7
63.440000000,167.9
63.460000000,173.3
63.480000000,162.7
63.500000000,149.2
63.520000000,136.8
63.540000000,158.3
63.560000000,149.9
63.580000000,149.9
63.600000000,164.4
63.620000000,152.1
63.640000000,142.0
63.660000000,164.1
63.680000000,148.3
63.700000000,209.1
63.720000000,152.1
63.740000000,142.5
63.760000000,161.4
63.780000000,156.4
63.800000000,163.4
63.820000000,157.3
63.840000000,174.4
63.860000000,170.5
63.880000000,158.0
63.900000000,173.9
63.920000000,153.8
63.940000000,161.9
63.960000000,150.0
63.980000000,155.1
64.000000000,179.4
64.020000000,196.2
64.040000000,175.5
64.060000000,184.0
64.080000000,183.1
64.100000000,173.2
64.120000000,169.8
64.140000000,174.9
64.160000000,180.3
64.180000000,170.9
64.200000000,149.5
64.220000000,167.2
64.240000000,159.1
64.260000000,157.0
64.280000000,174.2
64.300000000,155.9
64.320000000,160.7
64.340000000,158.3
64.360000000,148.1
64.380000000,156.0
64.400000000,129.8
64.420000000,155.5
64.440000000,164.0
64.460000000,155.0
64.480000000,151.3
64.500000000,165.2
64.520000000,155.1
64.540000000,158.8
64.560000000,152.1
64.580000000,156.6
64.600000000,158.1
64.620000000,166.8
64.640000000,149.4
64.660000000,160.0
64.680000000,148.1
64.700000000,144.0
64.720000000,158.9
64.740000000,156.7
64.760000000,183.3
64.780000000,146.3
64.800000000,161.9
64.820000000,180.4
64.840000000,163.6
64.860000000,170.9
64.880000000,162.3
64.900000000,165.6
64.920000000,155.6
64.940000000,160.5
64.960000000,159.7
64.980000000,146.8
65.000000000,161.0
65.020000000,152.7
65.040000000,166.4
65.060000000,148.1
65.080000000,146.3
65.100000000,169.7
65.120000000,183.8
65.140000000,176.4
65.160000000,175.2
65.180000000,167.3
65.200000000,190.5
65.220000000,179.8
65.240000000,172.5
65.260000000,179.4
65.280000000,178.1
65.300000000,168.7
65.320000000,142.7
65.340000000,174.7
65.360000000,192.3
65.380000000,174.5
65.400000000,165.1
65.420000000,170.6
65.440000000,185.7
65.460000000,160.5
65.480000000,181.2
65.500000000,181.9
65.520000000,168.4
65.540000000,159.2
65.560000000,167.8
65.580000000,164.1
65.600000000,168.6
65.620000000,169.9
65.640000000,183.7
65.660000000,184.5
65.680000000,162.8
65.700000000,141.7
65.720000000,149.4
65.740000000,162.2
65.760000000,152.0
65.780000000,141.2
65.800000000,147.4
65.820000000,153.1
65.840000000,155.7
65.860000000,142.3
65.880000000,163.5
65.900000000,149.1
65.920000000,160.0
65.940000000,152.6
65.960000000,148.6
65.980000000,115.8
66.000000000,137.2
66.020000000,140.1
66.040000000,142.0
66.060000000,152.1
66.080000000,145.3
66.100000000,139.4
66.120000000,137.2
66.140000000,162.6
66.160000000,139.3
66.180000000,155.6
66.200000000,159.5
66.220000000,140.9
66.240000000,153.7
66.260000000,123.8
66.280000000,127.8
66.300000000,137.4
66.320000000,146.2
66.340000000,141.8
66.360000000,138.8
66.380000000,139.8
66.400000000,124.8
66.420000000,155.2
66.440000000,149.4
66.460000000,144.4
66.480000000,141.0
66.500000000,137.3
66.520000000,148.7
66.540000000,145.5
66.560000000,136.6
66.580000000,128.6
66.600000000,156.5
66.620000000,149.0
66.640000000,140.2
66.660000000,121.2
66.680000000,134.5
66.700000000,128.5
66.720000000,146.0
66.740000000,152.8
66.760000000,142.8
66.780000000,133.9
66.800000000,135.7
66.820000000,142.0
66.840000000,126.0
66.860000000,143.3
66.880000000,139.1
66.900000000,135.8
66.920000000,136.0
66.940000000,134.5
66.960000000,124.4
66.980000000,140.3
67.000000000,148.0
67.020000000,141.4
67.040000000,153.0
67.060000000,153.5
67.080000000,145.2
67.100000000,122.1
67.120000000,111.2
67.140000000,144.9
67.160000000,139.5
67.180000000,151.5
67.200000000,113.2
67.220000000,127.7
67.240000000,133.4
67.260000000,156.2
67.280000000,151.9
67.300000000,132.2
67.320000000,139.1
67.340000000,152.7
67.360000000,128.0
67.380000000,145.3
67.400000000,155.1
67.420000000,145.1
67.440000000,141.2
67.460000000,134.1
67.480000000,131.7
67.500000000,129.4
67.520000000,136.6
67.540000000,167.7
67.560000000,159.4
67.580000000,146.6
67.600000000,164.3
67.620000000,144.4
67.640000000,156.1
67.660000000,155.0
67.680000000,176.4
67.700000000,146.0
67.720000000,177.4
67.740000000,184.4
67.760000000,172.3
67.780000000,196.8
67.800000000,215.7
67.820000000,196.9
67.840000000,198.8
67.860000000,168.1
67.880000000,183.6
67.900000000,168.9
67.920000000,188.1
67.940000000,165.5
67.960000000,167.5
67.980000000,163.3
68.000000000,193.2
68.020000000,163.5
68.040000000,167.5
68.060000000,168.0
68.080000000,173.9
68.100000000,177.3
68.120000000,194.0
68.140000000,212.6
68.160000000,212.0
68.180000000,232.8
68.200000000,212.4
68.220000000,223.5
68.240000000,216.6
68.260000000,208.6
68.280000000,203.9
68.300000000,222.0
68.320000000,235.8
68.340000000,221.2
68.360000000,275.1
68.380000000,245.8
68.400000000,230.0
68.420000000,221.6
68.440000000,191.5
68.460000000,196.0
68.480000000,181.8
68.500000000,184.4
68.520000000,208.9
68.540000000,217.8
68.560000000,182.6
68.580000000,205.6
68.600000000,192.7
68.620000000,183.5
68.640000000,173.8
68.660000000,165.5
68.680000000,161.9
68.700000000,186.3
68.720000000,162.6
68.740000000,173.8
68.760000000,177.4
68.780000000,185.8
68.800000000,185.1
68.820000000,180.6
68.840000000,176.6
68.860000000,173.1
68.880000000,198.0
68.900000000,179.1
68.920000000,176.1
68.940000000,192.4
68.960000000,170.6
68.980000000,206.5
69.000000000,175.8
69.020000000,182.9
69.040000000,176.1
69.060000000,182.6
69.080000000,207.6
69.100000000,212.4
69.120000000,196.8
69.140000000,195.5
69.160000000,202.9
69.180000000,210.1
69.200000000,192.3
69.220000000,186.1
69.240000000,199.1
69.260000000,200.9
69.280000000,203.9
69.300000000,216.4
69.320000000,212.5
69.340000000,186.0
69.360000000,198.8
69.380000000,213.0
69.400000000,240.4
69.420000000,214.5
69.440000000,207.0
69.460000000,220.1
69.480000000,236.2
69.500000000,201.6
69.520000000,233.0
69.540000000,218.0
69.560000000,218.7
69.580000000,221.3
69.600000000,215.0
69.620000000,241.1
69.640000000,211.3
69.660000000,216.7
69.680000000,227.6
69.700000000,232.0
69.720000000,214.8
69.740000000,215.0
69.760000000,205.5
69.780000000,228.5
69.800000000,198.4
69.820000000,204.5
69.840000000,225.3
69.860000000,227.6
69.880000000,210.0
69.900000000,247.1
69.920000000,223.5
69.940000000,218.1
69.960000000,226.8
69.980000000,232.8
70.000000000,203.9
70.020000000,226.5
70.040000000,232.2
70.060000000,223.7
70.080000000,210.7
70.100000000,238.0
70.120000000,200.0
70.140000000,220.4
70.160000000,247.6
70.180000000,251.8
70.200000000,229.2
70.220000000,247.2
70.240000000,242.8
70.260000000,238.5
70.280000000,217.2
70.300000000,218.1
70.320000000,234.8
70.340000000,208.4
70.360000000,226.8
70.380000000,210.8
70.400000000,234.9
70.420000000,199.5
70.440000000,207.5
70.460000000,210.1
70.480000000,204.5
70.500000000,190.1
70.520000000,208.5
70.540000000,171.2
70.560000000,204.2
70.580000000,200.6
70.600000000,203.5
70.620000000,190.5
70.640000000,185.3
70.660000000,181.4
70.680000000,197.7
70.700000000,191.3
70.720000000,178.8
70.740000000,167.4
70.760000000,194.0
70.780000000,183.1
70.800000000,191.3
70.820000000,175.5
70.840000000,170.7
70.860000000,177.7
70.880000000,190.5
70.900000000,159.5
70.920000000,161.9
70.940000000,190.5
70.960000000,151.5
70.980000000,164.3
71.000000000,170.8
71.020000000,145.2
71.040000000,161.5
71.060000000,151.2
71.080000000,172.6
71.100000000,167.9
71.120000000,178.6
71.140000000,184.4
71.160000000,182.3
71.180000000,152.3
71.200000000,149.9
71.220000000,164.7
71.240000000,143.1
71.260000000,154.8
71.280000000,151.1
71.300000000,172.3
71.320000000,137.8
71.340000000,154.7
71.360000000,172.7
71.380000000,160.0
71.400000000,148.5
71.420000000,166.7
71.440000000,151.2
71.460000000,165.0
71.480000000,142.4
71.500000000,165.7
71.520000000,168.3
71.540000000,164.0
71.560000000,151.3
71.580000000,151.3
71.600000000,161.6
71.620000000,161.0
71.640000000,147.5
71.660000000,158.7
71.680000000,137.9
71.700000000,150.0
71.720000000,167.6
71.740000000,155.6
71.760000000,149.6
71.780000000,166.9
71.800000000,148.7
71.820000000,137.3
71.840000000,141.5
71.860000000,171.9
71.880000000,152.1
71.900000000,156.7
71.920000000,158.7
71.940000000,144.5
71.960000000,161.4
71.980000000,138.1
72.000000000,153.6
72.020000000,146.8
72.040000000,151.9
72.060000000,131.2
72.080000000,167.5
72.100000000,142.7
72.120000000,164.5
72.140000000,161.4
72.160000000,164.5
72.180000000,155.2
72.200000000,168.6
72.220000000,159.3
72.240000000,157.9
72.260000000,163.3
72.280000000,149.8
72.300000000,184.7
72.320000000,163.5
72.340000000,163.3
72.360000000,149.2
72.380000000,155.3
72.400000000,159.8
72.420000000,165.0
72.440000000,167.9
72.460000000,143.5
72.480000000,163.8
72.500000000,148.9
72.520000000,167.9
72.540000000,134.7
72.560000000,152.2
72.580000000,141.3
72.600000000,164.0
72.620000000,159.6
72.640000000,161.0
72.660000000,163.7
72.680000000,174.2
72.700000000,176.0
72.720000000,182.0
72.740000000,205.8
72.760000000,172.4
72.780000000,170.7
72.800000000,187.6
72.820000000,189.7
72.840000000,193.9
72.860000000,197.2
72.880000000,193.1
72.900000000,175.9
72.920000000,202.8
72.940000000,202.0
72.960000000,195.8
72.980000000,214.6
73.000000000,188.4
73.020000000,190.1
73.040000000,189.3
73.060000000,182.4
73.080000000,187.9
73.100000000,183.4
73.120000000,185.3
73.140000000,195.2
73.160000000,152.5
73.180000000,168.7
73.200000000,191.2
73.220000000,182.5
73.240000000,191.0
73.260000000,171.8
73.280000000,182.9
73.300000000,206.9
73.320000000,194.0
73.340000000,184.4
73.360000000,180.5
73.380000000,181.7
73.400000000,161.7
73.420000000,155.8
73.440000000,189.7
73.460000000,190.9
73.480000000,188.8
73.500000000,206.1
73.520000000,216.2
73.540000000,188.0
73.560000000,159.5
73.580000000,189.6
73.600000000,162.3
73.620000000,146.6
73.640000000,169.1
73.660000000,152.3
73.680000000,153.1
73.700000000,176.5
73.720000000,174.2
73.740000000,169.2
73.760000000,172.3
73.780000000,166.9
73.800000000,164.7
73.820000000,145.2
73.840000000,144.9
73.860000000,178.8
73.880000000,146.0
73.900000000,157.9
73.920000000,155.1
73.940000000,139.0
73.960000000,163.2
73.980000000,140.6
74.000000000,136.8
74.020000000,152.5
74.040000000,149.6
74.060000000,159.1
74.080000000,153.0
74.100000000,136.6
74.120000000,161.1
74.140000000,138.8
74.160000000,148.0
74.180000000,137.1
74.200000000,159.7
74.220000000,153.2
74.240000000,144.8
74.260000000,151.5
74.280000000,155.6
74.300000000,134.0
74.320000000,156.6
74.340000000,139.5
74.360000000,150.6
74.380000000,148.9
74.400000000,144.3
74.420000000,150.8
74.440000000,131.8
74.460000000,152.1
74.480000000,153.2
74.500000000,109.8
74.520000000,125.3
74.540000000,134.0
74.560000000,134.0
74.580000000,144.9
74.600000000,136.3
74.620000000,145.6
74.640000000,144.7
74.660000000,142.5
74.680000000,134.1
74.700000000,139.9
74.720000000,153.9
74.740000000,143.8
74.760000000,144.0
74.780000000,160.1
74.800000000,138.1
74.820000000,137.4
74.840000000,137.8
74.860000000,124.8
74.880000000,109.5
74.900000000,156.4
74.920000000,137.9
74.940000000,127.6
74.960000000,134.5
74.980000000,135.9
